File: exp_xaslib/raw/Cu metal.xdi
#XDI/1.0  XASDataLibrary/1.0
# Column.1: energy eV
# Column.2: i0
# Column.3: itrans
# Mono.d_spacing: 3.134770
# Mono.name: None
# Beamline.name: APS 13-ID-E
# Element.symbol: Cu
# Element.edge: K
# Data.upload_date: 2020-05-17 13:26:30
# Data.submitted_by: Matt Newville
# Sample.name: Cu
# Sample.formula: Cu
# Sample.preparation: metal foil
# Sample.notes: sample for 'Cu_Foil_rt_2016Foils_13IDE_01.xdi', uploaded 2020-05-07 19:57:14, {"temperature": "room temperature"}
# Reference.mode: no reference spectra
# ///
#
#-----------------------
#   energy         i0            itrans
 8929   42443   120836
 8939   59961   170877
 8949   61851   176230
 8959   60110   170604
 8969   61731   172558
 8974.1   61165   166127
 8974.3   59226   160522
 8974.5   57316   154976
 8974.7   56750   153046
 8974.9   56489   151941
 8975.1   56434   151395
 8975.3   56045   149868
 8975.5   55890   148957
 8975.7   55831   148270
 8975.9   56003   148146
 8976.1   55995   147504
 8976.3   56074   147048
 8976.5   56480   147340
 8976.7   56627   146876
 8976.9   56592   145849
 8977.1   56653   144983
 8977.3   56694   143900
 8977.5   56790   142847
 8977.7   56929   141669
 8977.9   56928   139921
 8978.1   56735   137467
 8978.3   56472   134462
 8978.5   55886   130302
 8978.7   55890   127020
 8978.9   55914   123207
 8979.1   56064   118728
 8979.3   56189   113184
 8979.5   56208   106300
 8979.7   56309   98495
 8979.9   56438   90227
 8980.1   56610   81380
 8980.3   56460   72222
 8980.5   56616   64344
 8980.7   56564   57400
 8980.9   56694   51829
 8981.1   56614   47523
 8981.3   56556   44436
 8981.5   56634   42384
 8981.7   56112   40484
 8981.9   56134   39465
 8982.1   56076   38794
 8982.3   56148   38537
 8982.5   56272   38589
 8982.7   56383   38873
 8982.9   56182   39140
 8983.1   56123   39626
 8983.3   56292   40381
 8983.5   56344   41074
 8983.7   56453   41758
 8983.9   56425   42235
 8984.1   56324   42485
 8984.3   56485   42716
 8984.5   56109   42302
 8984.7   55883   41762
 8984.9   56033   41281
 8985.1   56090   40533
 8985.3   56278   39776
 8985.5   56418   38871
 8985.7   56403   37848
 8985.9   55892   36531
 8986.1   56018   35719
 8986.3   56106   34928
 8986.5   56186   34190
 8986.7   56278   33562
 8986.9   56393   32943
 8987.1   56579   32386
 8987.3   56458   31639
 8987.5   56604   31052
 8987.7   56593   30320
 8987.9   56352   29437
 8988.1   56392   28688
 8988.3   56506   27921
 8988.5   56490   27061
 8988.7   56572   26229
 8988.9   56666   25336
 8989.63   56624   21848
 8990.94   56763   15760
 8992.33   56884   10941
 8993.8   57305   8280
 8995.34   57223   7879
 8996.96   57578   9219
 8998.66   57550   10598
 9000.43   56053   10304
 9002.28   57921   8667
 9004.2   58152   7532
 9006.21   58148   8822
 9008.28   58232   10359
 9010.44   56962   11413
 9012.67   58624   12419
 9014.98   58719   12069
 9017.36   57489   10966
 9019.83   58711   9909
 9022.36   58802   8816
 9024.98   59157   7975
 9027.67   59393   7900
 9030.44   59205   8875
 9033.28   59464   10263
 9036.2   59120   10984
 9039.2   59524   11099
 9042.27   60506   10842
 9045.42   60150   10768
 9048.65   59602   10623
 9051.95   60545   10300
 9055.33   59206   10025
 9058.79   58097   9487
 9062.32   57003   8757
 9065.93   55210   8157
 9069.61   54400   7593
 9073.38   55128   7366
 9077.21   54965   7746
 9081.13   56115   8837
 9085.12   56280   9693
 9089.19   57238   10372
 9093.33   57270   10953
 9097.56   58579   12194
 9101.85   59421   12436
 9106.23   59919   11630
 9110.68   60207   10779
 9115.21   60563   10474
 9119.81   60599   10514
 9124.49   60875   9966
 9129.25   61200   8704
 9134.08   60898   8279
 9138.99   59650   8476
 9143.98   59541   9225
 9149.04   58103   10357
 9154.18   57791   12041
 9159.39   57329   13278
 9164.69   57773   12901
 9170.06   58044   11423
 9175.5   58411   10652
 9181.02   57208   10410
 9186.62   57215   10608
 9192.3   57574   10790
 9198.05   58373   11196
 9203.88   57989   10582
 9209.78   57823   9823
 9215.76   57869   9865
 9221.82   58112   10374
 9227.95   59120   11552
 9234.17   59009   12600
 9240.45   59239   13184
 9246.82   58317   12856
 9253.26   58706   12891
 9259.77   58702   12797
 9266.37   56291   12066
 9273.04   56585   11874
 9279.78   57275   11889
 9286.61   57907   11931
 9293.51   58714   12028
 9300.48   58485   12019
 9307.53   59183   12559
 9314.66   59058   13041
 9321.87   59021   13445
 9329.15   58900   13526
 9336.51   58881   13788
 9343.94   58772   14220
 9351.45   58557   14184
 9359.04   57818   14002
 9366.71   56672   13669
 9374.45   57423   13795
 9382.27   57617   13798
 9390.16   57524   13779
 9398.13   57002   13704
 9406.18   56689   13828
 9414.3   56122   14048
 9422.5   56311   14425
 9430.78   54237   14044
 9439.13   56005   14617
 9447.56   55171   14605
 9456.07   55873   15055
 9464.65   57386   15615
 9473.31   57124   15700
 9482.05   57401   15856
 9490.86   57445   15879
 9499.75   57477   15888
 9508.71   55945   15493
 9517.75   56279   15730
 9526.87   54185   15420
 9536.07   54162   15667
 9545.34   54457   15934
 9554.69   54848   16211
 9564.11   54255   16196
 9573.61   55165   16634
 9583.19   54688   16672
 9592.84   54451   16759
 9602.57   52441   16271
 9612.38   54252   16938
 9622.27   52614   16532
 9632.23   51804   16391
 9642.26   51993   16595
 9652.38   53907   17375
 9662.57   54278   17688
 9672.83   54321   17905
 9683.17   53888   17957
 9693.59   51774   17455
 9704.09   50823   17304
 9714.66   50485   17372
 9725.31   49526   17216
 9736.04   50337   17658
 9746.84   50135   17724
 9757.72   50468   17980
 9768.67   51877   18635
 9779.7   52579   19040
 9790.81   50161   18363
 9801.99   48192   17817
 9813.26   45921   17143
 9824.59   47709   17983
 9836.01   49373   18784
 9847.5   50956   19569
 9859.06   50359   19543
 9870.71   50272   19703
 9882.43   48100   19051
 9894.22   45550   18219
 9906.1   46049   18586
 9918.05   45873   18680
 9930.07   47715   19595
 9942.18   49467   20484
 9954.36   48143   20143