File: exp_xaslib/raw/Fe metal.xdi
#XDI/1.0  XASDataLibrary/1.0
# Column.1: energy eV
# Column.2: i0
# Column.3: itrans
# Mono.d_spacing: 3.134770
# Mono.name: None
# Beamline.name: APS 13-ID-E
# Element.symbol: Fe
# Element.edge: K
# Data.upload_date: 2020-05-17 07:45:22
# Data.submitted_by: Matt Newville
# Sample.name: Fe foil  Room Temperature
# Sample.formula: Fe
# Sample.preparation: foil
# Sample.notes: sample for 'Fe_metal_rt_02.xdi', uploaded 2020-05-07 19:57:17, {"reference": "none", "temperature": "Room Temperature"}
# Reference.mode: no reference spectra
# ///
#
#-----------------------
#   energy         i0            itrans
 7062   43955   86833
 7072   44476   88157
 7082   43806   87045
 7092   43715   86846
 7102   48262   94989
 7107.1   39657   75968
 7107.3   38930   74396
 7107.5   38763   73877
 7107.7   38959   74016
 7107.9   39376   74564
 7108.1   39630   74754
 7108.3   39579   74322
 7108.5   39648   74057
 7108.7   40016   74290
 7108.9   40417   74500
 7109.1   40398   73823
 7109.3   40383   73011
 7109.5   40473   72159
 7109.7   40585   71084
 7109.9   41058   70257
 7110.1   41444   68776
 7110.3   41608   66377
 7110.5   41543   63152
 7110.7   41544   59694
 7110.9   41588   56301
 7111.1   41732   53250
 7111.3   40831   49311
 7111.5   41103   47254
 7111.7   41167   45363
 7111.9   41486   44060
 7112.1   41873   43098
 7112.3   41740   41738
 7112.5   41999   40891
 7112.7   42265   40104
 7112.9   42713   39530
 7113.1   42927   38785
 7113.3   43042   37967
 7113.5   43473   37493
 7113.7   43083   36403
 7113.9   43453   36039
 7114.1   43780   35727
 7114.3   43542   35046
 7114.5   43275   34437
 7114.7   43277   34119
 7114.9   43557   34089
 7115.1   43662   33969
 7115.3   43868   33976
 7115.5   43904   33852
 7115.7   43940   33725
 7115.9   44428   33915
 7116.1   44657   33838
 7116.3   44643   33493
 7116.5   44468   32905
 7116.7   44776   32547
 7116.9   44204   31422
 7117.1   44364   30707
 7117.3   44806   30081
 7117.5   45009   29214
 7117.7   45287   28345
 7117.9   45691   27541
 7118.1   45208   26200
 7118.3   45421   25298
 7118.5   45822   24519
 7118.7   46074   23676
 7118.9   46350   22856
 7119.1   46282   21878
 7119.3   46101   20885
 7119.5   45880   19899
 7119.7   45933   19051
 7119.9   46358   18389
 7120.1   46592   17683
 7120.3   46809   17013
 7120.5   47153   16444
 7120.7   47473   15918
 7120.9   47347   15286
 7121.1   46557   14511
 7121.3   47014   14181
 7121.5   47203   13800
 7121.7   47271   13423
 7121.9   47408   13092
 7122.63   48156   12167
 7123.94   49134   10934
 7125.33   49401   9838
 7126.8   50814   8877
 7128.34   50829   7352
 7129.96   51792   6309
 7131.66   53247   6804
 7133.43   53851   8320
 7135.28   54397   9448
 7137.2   55435   9684
 7139.21   56123   9149
 7141.28   56678   8904
 7143.44   57919   9318
 7145.67   59132   9310
 7147.98   59326   8459
 7150.36   59309   7917
 7152.83   58829   7637
 7155.36   59691   7877
 7157.98   58063   7817
 7160.67   57777   7822
 7163.44   56966   7916
 7166.28   57260   8157
 7169.2   54140   7871
 7172.2   53004   8096
 7175.27   50908   8434
 7178.42   49679   8852
 7181.65   48780   8767
 7184.95   50136   8677
 7188.33   50339   8047
 7191.79   50625   7388
 7195.32   51037   7295
 7198.93   51555   7974
 7202.61   52845   9178
 7206.38   53360   10206
 7210.21   54352   9729
 7214.13   54217   7537
 7218.12   54316   6054
 7222.19   53681   5918
 7226.33   54563   7254
 7230.56   54575   9110
 7234.85   53881   10648
 7239.23   55372   11415
 7243.68   59056   11498
 7248.21   56468   10329
 7252.81   52114   9713
 7257.49   48700   9298
 7262.25   47987   8788
 7267.08   48595   8586
 7271.99   50987   8361
 7276.98   53543   8371
 7282.04   55840   8342
 7287.18   58672   8337
 7292.39   60919   9238
 7297.69   62486   11003
 7303.06   63844   12530
 7308.5   62586   12886
 7314.02   63153   13004
 7319.62   64269   13312
 7325.3   59792   12437
 7331.05   54133   11397
 7336.88   54496   11846
 7342.78   56267   11976
 7348.76   58639   11493
 7354.82   58116   10581
 7360.95   57083   9833
 7367.17   56373   9604
 7373.45   57882   10577
 7379.82   58641   12461
 7386.26   61306   14381
 7392.77   59234   13769
 7399.37   55359   12656
 7406.04   54491   12500
 7412.78   52872   12088
 7419.61   54933   12657
 7426.51   54388   12901
 7433.48   53874   12783
 7440.53   57944   13391
 7447.66   61619   13636
 7454.87   63474   13925
 7462.15   65312   14517
 7469.51   64608   14985
 7476.94   68240   16564
 7484.45   61905   15572
 7492.04   55726   14584
 7499.71   56018   14774
 7507.45   58734   15384
 7515.27   59493   15710
 7523.16   64488   17172
 7531.13   62955   16747
 7539.18   61506   16468
 7547.3   64114   17354
 7555.5   64198   17318
 7563.78   60631   16186
 7572.13   66755   18081
 7580.56   56697   15906
 7589.07   62207   17901
 7597.65   64427   18695
 7606.31   67224   19702
 7615.05   68297   20378
 7623.86   68750   20585
 7632.75   69142   20865
 7641.71   70484   21706
 7650.75   66674   20856
 7659.87   61586   19409
 7669.07   62623   19746
 7678.34   62630   19741
 7687.69   64410   20440
 7697.11   67875   21884
 7706.61   65573   21452
 7716.19   60437   20113
 7725.84   60937   20565
 7735.57   61592   20977
 7745.38   64388   22161
 7755.27   66988   23272
 7765.23   70308   24761
 7775.26   73454   26252
 7785.38   71943   26006
 7795.57   69844   25498
 7805.83   66732   24546
 7816.17   69866   25901
 7826.59   72494   27134
 7837.09   64875   24503
 7847.66   66758   25489
 7858.31   67244   25976
 7869.04   63411   24827
 7879.84   60578   24028
 7890.72   62565   25124
 7901.67   68979   28035
 7912.7   69338   28503
 7923.81   70681   29379
 7934.99   70656   29675
 7946.26   73245   31033
 7957.59   71863   30747
 7969.01   66282   28636
 7980.5   63764   27793
 7992.06   64719   28524
 8003.71   65881   29358
 8015.43   65741   29627
 8027.22   66664   30386
 8039.1   68238   31474
 8051.05   64336   30024
 8069.12   63854   30341
 8081.26   68680   33024