File: exp_xaslib/raw/Mo metal.xdi
#XDI/1.0  XASDataLibrary/1.0
# Column.1: energy eV
# Column.2: i0
# Column.3: itrans
# Mono.d_spacing: 3.134770
# Mono.name: None
# Beamline.name: APS 13-ID-E
# Element.symbol: Mo
# Element.edge: K
# Data.upload_date: 2020-05-17 13:40:13
# Data.submitted_by: Matt Newville
# Sample.name: Mo foil
# Sample.formula: Mo
# Sample.preparation: foil from standard foil box
# Reference.mode: no reference spectra
# ///
#
#-----------------------
#   energy         i0            itrans
 19950   14318   60410
 19960   14211   59634
 19970   14166   58938
 19980   14127   57908
 19990   14111   55718
 19990.4   14129   55640
 19990.8   14158   55572
 19991.2   14139   55325
 19991.6   14165   55242
 19992   14186   55109
 19992.4   14180   54862
 19992.8   14165   54576
 19993.2   14107   54091
 19993.6   14141   53920
 19994   14132   53556
 19994.4   14149   53277
 19994.8   14171   52958
 19995.2   14128   52351
 19995.6   14127   51846
 19996   14135   51328
 19996.4   14110   50603
 19996.8   14119   49913
 19997.2   14115   49067
 19997.6   14075   47994
 19998   14089   47024
 19998.4   14083   45782
 19998.8   14078   44431
 19999.2   14099   43067
 19999.6   14078   41478
 20000   14073   39936
 20000.4   14035   38336
 20001   14111   37111
 20001.4   14074   35140
 20001.8   14044   33918
 20002.2   14078   32967
 20002.6   14093   32066
 20003   14082   31144
 20003.4   14090   30324
 20003.8   14044   29397
 20004.2   14053   28605
 20004.6   14058   27822
 20005   14030   26983
 20005.4   14031   26208
 20005.8   14008   25417
 20006.2   14027   24757
 20006.6   14029   24040
 20007   13998   23307
 20007.4   14001   22661
 20007.8   13968   21958
 20008.2   14007   21380
 20008.6   14003   20737
 20009   13995   20071
 20009.4   13976   19363
 20009.8   13988   18661
 20010.2   13982   17922
 20010.6   13981   17145
 20011   13990   16425
 20011.4   13968   15614
 20011.8   13965   14863
 20012.2   13954   14132
 20012.6   13931   13442
 20013   13963   12882
 20013.4   13921   12306
 20013.8   13953   11880
 20014.2   13902   11447
 20014.6   13882   11113
 20015   13948   10910
 20015.4   13945   10721
 20015.8   13920   10554
 20016.2   13922   10463
 20016.6   13893   10401
 20017   13875   10395
 20017.4   13884   10461
 20017.8   13855   10542
 20018.2   13883   10714
 20018.6   13845   10871
 20019   13843   11079
 20019.4   13816   11264
 20019.8   13862   11523
 20020.9   13833   11982
 20022.7   13793   12144
 20024.6   13724   11704
 20026.6   13686   11234
 20028.6   13719   11119
 20030.8   13637   11108
 20033   13648   11068
 20035.2   13567   10685
 20037.6   13479   10198
 20040   13484   9770
 20042.5   13457   9279
 20045.1   13383   9071
 20047.8   13271   9516
 20050.5   13236   10316
 20053.3   13219   10885
 20056.2   13007   10885
 20059.2   13042   10751
 20062.3   12975   10403
 20065.4   12820   10170
 20068.6   12803   10264
 20071.8   12752   10410
 20075.2   12735   10557
 20078.6   12728   10465
 20082.1   12513   9867
 20085.7   12650   9511
 20089.3   12653   9423
 20093.1   12547   9767
 20096.9   12645   10401
 20100.8   12688   10625
 20104.7   12713   10526
 20108.8   12906   10588
 20112.9   12886   10530
 20117.1   12915   10492
 20121.3   13228   10545
 20125.7   13245   10264
 20130.1   13367   10241
 20134.6   13575   10621
 20139.2   13652   11046
 20143.8   13717   11568
 20148.5   13629   11771
 20153.3   13667   11867
 20158.2   13653   11876
 20163.1   13628   11667
 20168.2   13624   11453
 20173.3   13594   11324
 20178.5   13563   11344
 20183.7   13458   11090
 20189   13491   10572
 20194.5   13532   10280
 20199.9   13490   10444
 20205.5   13332   11022
 20211.1   13317   11919
 20216.9   13322   12449
 20222.6   13172   12092
 20228.5   13163   11814
 20234.5   13173   11756
 20240.5   13089   11457
 20246.6   13043   11041
 20252.7   13081   10739
 20259   13031   10594
 20265.3   12989   10555
 20271.7   12880   10491
 20278.2   12824   10641
 20284.8   13111   11246
 20291.4   12955   11547
 20298.1   13165   12004
 20304.9   13354   12362
 20311.7   13352   12167
 20318.7   13386   11842
 20325.7   13329   11479
 20332.8   13337   11266
 20339.9   13263   11103
 20347.2   13308   11166
 20354.5   13178   11213
 20361.9   13150   11277
 20369.4   12985   11222
 20376.9   12852   11387
 20384.5   12733   11401
 20392.2   12447   11124
 20400   12174   10915
 20407.8   12020   10786
 20415.8   11707   10362
 20423.8   11568   10209
 20431.9   11391   10095
 20440   11289   9997
 20448.2   10935   9569
 20456.5   10521   9136
 20464.9   10643   9316
 20473.4   11423   10052
 20481.9   11756   10503
 20490.5   12298   11077
 20499.2   12511   11233
 20508   12354   11064
 20516.8   11865   10645
 20525.8   11549   10402
 20534.8   12075   10904
 20543.8   12171   10938
 20553   12108   10859
 20562.2   12013   10820
 20571.5   11963   10749
 20580.9   11874   10578
 20590.3   11541   10168
 20599.9   11849   10527
 20609.5   11352   10241
 20619.2   11361   10374
 20628.9   10806   9879
 20638.7   11343   10413
 20648.7   11226   10340
 20658.6   11388   10407
 20668.7   11828   10755
 20678.8   12091   10987
 20689.1   12287   11169
 20699.4   12235   11095
 20709.7   12066   10902
 20720.2   11859   10739
 20730.7   11663   10630
 20741.3   11133   10223
 20752   10342   9557
 20762.7   10533   9759
 20773.5   10266   9582
 20784.4   9787   9145
 20795.4   9862   9149
 20806.5   9892   9101
 20817.6   9522   8783
 20828.8   10055   9290
 20840.1   10316   9506
 20851.5   11179   10309
 20862.9   11188   10356
 20874.4   11096   10333
 20886   11279   10555
 20897.7   11140   10472
 20909.4   10932   10289
 20921.2   10539   9887
 20933.1   10320   9655
 20945.1   10467   9798
 20957.1   10407   9763
 20969.3   9855   9258
 20975.4   10091   9469